# E (eV)  dos(E)    pdos(E)
  -3.404  0.440E-04  0.438E-04
  -3.304  0.443E-01  0.441E-01
  -3.204  0.792E+00  0.789E+00
  -3.104  0.722E+00  0.719E+00
  -3.004  0.459E+00  0.457E+00
  -2.904  0.364E+00  0.362E+00
  -2.804  0.307E+00  0.305E+00
  -2.704  0.324E+00  0.323E+00
  -2.604  0.219E+00  0.218E+00
  -2.504  0.236E+00  0.235E+00
  -2.404  0.240E+00  0.239E+00
  -2.304  0.194E+00  0.193E+00
  -2.204  0.176E+00  0.175E+00
  -2.104  0.241E+00  0.239E+00
  -2.004  0.937E-01  0.932E-01
  -1.904  0.285E+00  0.284E+00
  -1.804  0.785E-01  0.781E-01
  -1.704  0.196E+00  0.195E+00
  -1.604  0.187E+00  0.186E+00
  -1.504  0.793E-01  0.788E-01
  -1.404  0.207E+00  0.206E+00
  -1.304  0.121E+00  0.120E+00
  -1.204  0.173E+00  0.172E+00
  -1.104  0.976E-01  0.970E-01
  -1.004  0.149E+00  0.149E+00
  -0.904  0.167E+00  0.166E+00
  -0.804  0.735E-01  0.731E-01
  -0.704  0.133E+00  0.132E+00
  -0.604  0.160E+00  0.159E+00
  -0.504  0.994E-01  0.989E-01
  -0.404  0.103E+00  0.103E+00
  -0.304  0.127E+00  0.126E+00
  -0.204  0.151E+00  0.150E+00
  -0.104  0.118E+00  0.117E+00
  -0.004  0.344E-01  0.342E-01
   0.096  0.133E+00  0.133E+00
   0.196  0.206E+00  0.205E+00
   0.296  0.504E-01  0.501E-01
   0.396  0.269E-02  0.267E-02
   0.496  0.178E+00  0.177E+00
   0.596  0.206E+00  0.205E+00
   0.696  0.373E-02  0.371E-02
   0.796  0.997E-02  0.991E-02
   0.896  0.201E+00  0.200E+00
   0.996  0.179E+00  0.178E+00
   1.096  0.974E-02  0.969E-02
   1.196  0.440E-01  0.437E-01
   1.296  0.143E+00  0.142E+00
   1.396  0.125E+00  0.124E+00
   1.496  0.795E-01  0.791E-01
   1.596  0.846E-01  0.840E-01
   1.696  0.673E-01  0.668E-01
   1.796  0.107E+00  0.106E+00
   1.896  0.781E-01  0.777E-01
   1.996  0.162E+00  0.161E+00
   2.096  0.304E-01  0.302E-01
   2.196  0.847E-01  0.840E-01
   2.296  0.499E-01  0.495E-01
   2.396  0.155E+00  0.153E+00
   2.496  0.102E+00  0.101E+00
   2.596  0.145E-01  0.144E-01
   2.696  0.113E+00  0.112E+00
   2.796  0.107E+00  0.106E+00
   2.896  0.520E-01  0.516E-01
   2.996  0.109E+00  0.108E+00
   3.096  0.382E-01  0.378E-01
   3.196  0.171E+00  0.169E+00
   3.296  0.619E-01  0.614E-01
   3.396  0.192E-02  0.191E-02
   3.496  0.128E+00  0.127E+00
   3.596  0.571E+00  0.569E+00
   3.696  0.426E+00  0.424E+00
   3.796  0.590E+00  0.580E+00
   3.896  0.532E+00  0.523E+00
   3.996  0.375E+00  0.369E+00
   4.096  0.494E+00  0.487E+00
   4.196  0.467E+00  0.460E+00
   4.296  0.250E+00  0.247E+00
   4.396  0.235E+00  0.232E+00
   4.496  0.229E+00  0.226E+00
   4.596  0.343E+00  0.338E+00
   4.696  0.394E+00  0.388E+00
   4.796  0.239E+00  0.236E+00
   4.896  0.165E+00  0.163E+00
   4.996  0.162E+00  0.160E+00
   5.096  0.440E+00  0.433E+00
   5.196  0.156E+00  0.154E+00
   5.296  0.773E+00  0.768E+00
   5.396  0.721E+00  0.717E+00
   5.496  0.483E+00  0.479E+00
   5.596  0.541E+00  0.534E+00
   5.696  0.332E+00  0.329E+00
   5.796  0.378E+00  0.374E+00
   5.896  0.382E+00  0.378E+00
   5.996  0.370E+00  0.366E+00
   6.096  0.372E+00  0.365E+00
   6.196  0.288E+00  0.284E+00
   6.296  0.267E+00  0.264E+00
   6.396  0.253E+00  0.249E+00
   6.496  0.389E+00  0.382E+00
   6.596  0.688E+00  0.633E+00
   6.696  0.870E+00  0.782E+00
   6.796  0.609E+00  0.556E+00
   6.896  0.600E+00  0.552E+00
   6.996  0.525E+00  0.494E+00
   7.096  0.626E+00  0.595E+00
   7.196  0.456E+00  0.432E+00
   7.296  0.575E+00  0.545E+00
   7.396  0.808E+00  0.772E+00
   7.496  0.344E+00  0.327E+00
   7.596  0.332E+00  0.315E+00
   7.696  0.437E+00  0.416E+00
   7.796  0.268E+00  0.253E+00
   7.896  0.381E+00  0.354E+00
   7.996  0.336E+00  0.314E+00
   8.096  0.284E+00  0.268E+00
   8.196  0.411E+00  0.387E+00
   8.296  0.457E+00  0.428E+00
   8.396  0.485E+00  0.455E+00
   8.496  0.350E+00  0.322E+00
   8.596  0.252E+00  0.228E+00
   8.696  0.273E+00  0.257E+00
   8.796  0.290E+00  0.269E+00
   8.896  0.253E+00  0.237E+00
   8.996  0.179E+00  0.169E+00
   9.096  0.153E+00  0.140E+00
   9.196  0.399E+00  0.353E+00
   9.296  0.209E+00  0.192E+00
   9.396  0.233E+00  0.213E+00
   9.496  0.240E+00  0.219E+00
   9.596  0.582E+00  0.555E+00
   9.696  0.524E+00  0.509E+00
   9.796  0.578E+00  0.536E+00
   9.896  0.558E+00  0.509E+00
   9.996  0.484E+00  0.452E+00
  10.096  0.261E+00  0.242E+00
  10.196  0.507E+00  0.474E+00
  10.296  0.260E+00  0.243E+00
  10.396  0.287E+00  0.264E+00
  10.496  0.548E+00  0.491E+00
  10.596  0.409E+00  0.362E+00
  10.696  0.278E+00  0.251E+00
  10.796  0.400E+00  0.371E+00
  10.896  0.282E+00  0.242E+00
  10.996  0.283E+00  0.267E+00
  11.096  0.337E+00  0.302E+00
  11.196  0.493E+00  0.428E+00
  11.296  0.315E+00  0.258E+00
  11.396  0.292E+00  0.259E+00
  11.496  0.252E+00  0.232E+00
  11.596  0.354E+00  0.299E+00
  11.696  0.399E+00  0.354E+00
  11.796  0.227E+00  0.193E+00
  11.896  0.261E+00  0.216E+00
  11.996  0.400E+00  0.328E+00
  12.096  0.479E+00  0.401E+00
  12.196  0.131E+00  0.111E+00
  12.296  0.202E+00  0.173E+00
  12.396  0.462E+00  0.379E+00
  12.496  0.238E+00  0.208E+00
  12.596  0.306E+00  0.232E+00
  12.696  0.340E+00  0.267E+00
  12.796  0.364E+00  0.301E+00
  12.896  0.311E+00  0.229E+00
  12.996  0.112E+00  0.905E-01
  13.096  0.340E+00  0.253E+00
  13.196  0.490E+00  0.402E+00
  13.296  0.325E+00  0.238E+00
  13.396  0.232E+00  0.915E-01
  13.496  0.591E+00  0.186E+00
  13.596  0.423E+00  0.204E+00
  13.696  0.629E+00  0.393E+00
  13.796  0.422E+00  0.261E+00
  13.896  0.333E+00  0.235E+00
  13.996  0.740E+00  0.623E+00
  14.096  0.938E+00  0.801E+00
  14.196  0.713E+00  0.578E+00
  14.296  0.728E+00  0.513E+00
  14.396  0.579E+00  0.457E+00
  14.496  0.393E+00  0.253E+00
  14.596  0.429E+00  0.339E+00
  14.696  0.562E+00  0.386E+00
  14.796  0.202E+00  0.161E+00
  14.896  0.423E+00  0.296E+00
  14.996  0.490E+00  0.275E+00
  15.096  0.581E+00  0.436E+00
  15.196  0.420E+00  0.253E+00
  15.296  0.269E+00  0.187E+00
  15.396  0.970E-01  0.661E-01
  15.496  0.566E+00  0.343E+00
  15.596  0.329E+00  0.211E+00
  15.696  0.462E+00  0.354E+00
  15.796  0.340E+00  0.142E+00
  15.896  0.365E+00  0.209E+00
  15.996  0.370E+00  0.276E+00
  16.096  0.186E+00  0.483E-01
  16.196  0.531E+00  0.349E+00
  16.296  0.130E+00  0.933E-01
  16.396  0.387E+00  0.209E+00
  16.496  0.551E+00  0.325E+00
  16.596  0.118E+00  0.581E-01
  16.696  0.244E+00  0.125E+00
  16.796  0.603E+00  0.353E+00
  16.896  0.274E+00  0.133E+00
  16.996  0.888E-01  0.488E-01
  17.096  0.373E+00  0.216E+00
  17.196  0.439E+00  0.208E+00
  17.296  0.205E+00  0.137E+00
  17.396  0.239E+00  0.146E+00
  17.496  0.533E+00  0.212E+00
  17.596  0.265E+00  0.883E-01
  17.696  0.639E+00  0.165E+00
  17.796  0.829E+00  0.349E+00
  17.896  0.612E+00  0.160E+00
  17.996  0.448E+00  0.135E+00
  18.096  0.320E+00  0.147E+00
  18.196  0.592E+00  0.234E+00
  18.296  0.399E+00  0.127E+00
  18.396  0.623E+00  0.213E+00
  18.496  0.356E+00  0.183E+00
  18.596  0.460E+00  0.166E+00
  18.696  0.197E+00  0.698E-01
  18.796  0.479E+00  0.158E+00
  18.896  0.604E+00  0.259E+00
  18.996  0.339E+00  0.158E+00
  19.096  0.292E+00  0.956E-01
  19.196  0.127E+01  0.633E+00
  19.296  0.183E+01  0.980E+00
  19.396  0.127E+01  0.688E+00
  19.496  0.915E+00  0.504E+00
  19.596  0.119E+01  0.559E+00
  19.696  0.819E+00  0.344E+00
  19.796  0.933E+00  0.512E+00
  19.896  0.684E+00  0.334E+00
  19.996  0.693E+00  0.193E+00
  20.096  0.844E+00  0.276E+00
  20.196  0.965E+00  0.338E+00
  20.296  0.650E+00  0.253E+00
  20.396  0.970E+00  0.305E+00
  20.496  0.138E+01  0.276E+00
  20.596  0.114E+01  0.319E+00
  20.696  0.104E+01  0.267E+00
  20.796  0.107E+01  0.264E+00
  20.896  0.118E+01  0.248E+00
  20.996  0.137E+01  0.226E+00
  21.096  0.153E+01  0.271E+00
  21.196  0.134E+01  0.145E+00
  21.296  0.489E+00  0.137E+00
  21.396  0.652E+00  0.165E+00
  21.496  0.377E+00  0.780E-01
  21.596  0.640E+00  0.167E+00
  21.696  0.485E+00  0.929E-01
  21.796  0.620E+00  0.211E+00
  21.896  0.608E+00  0.123E+00
  21.996  0.588E+00  0.130E+00
  22.096  0.473E+00  0.144E+00
  22.196  0.599E+00  0.248E+00
  22.296  0.918E+00  0.399E+00
  22.396  0.140E+01  0.648E+00
  22.496  0.169E+01  0.110E+01
  22.596  0.102E+01  0.522E+00
  22.696  0.132E+01  0.629E+00
  22.796  0.748E+00  0.209E+00
  22.896  0.129E+01  0.257E+00
  22.996  0.150E+01  0.227E+00
  23.096  0.143E+01  0.398E+00
  23.196  0.135E+01  0.385E+00
  23.296  0.121E+01  0.210E+00
  23.396  0.513E+00  0.124E+00
  23.496  0.662E+00  0.143E+00
  23.596  0.103E+01  0.200E+00
  23.696  0.104E+01  0.207E+00
  23.796  0.567E+00  0.700E-01
  23.896  0.709E+00  0.108E+00
  23.996  0.109E+01  0.149E+00
  24.096  0.727E+00  0.935E-01
  24.196  0.109E+01  0.241E+00
  24.296  0.793E+00  0.134E+00
  24.396  0.103E+01  0.990E-01
  24.496  0.964E+00  0.191E+00
  24.596  0.684E+00  0.109E+00
  24.696  0.648E+00  0.127E+00
  24.796  0.510E+00  0.441E-01
  24.896  0.369E+00  0.173E-01
  24.996  0.546E+00  0.339E-01
  25.096  0.983E+00  0.236E-01
